@g0 type xy 
@    title "water521"
@    subtitle "Photons:  Mean Free Path"
@    legend on
@    legend box linestyle 0
@    legend x1 0.6
@    legend y1 0.75
@    view xmin 0.250000
@    xaxis  label "kinetic energy / MeV"
@    timestamp on
@    yaxis  label "mean free path / cm"
@    s0 on
@    legend string  0 " photon mean free path"
@TYPE xy
@    s0 errorbar length 0.000000
@    s0 symbol color 1
     1.0000E-02     1.8594E-01
     1.2500E-02     3.5429E-01
     1.5000E-02     5.8502E-01
     1.7500E-02     8.7005E-01
     2.0000E-02     1.1942E+00
     2.5000E-02     1.8904E+00
     3.0000E-02     2.5534E+00
     3.5000E-02     3.1245E+00
     4.0000E-02     3.5914E+00
     4.5000E-02     3.9695E+00
     5.0000E-02     4.2764E+00
     5.5000E-02     4.5303E+00
     6.0000E-02     4.7436E+00
     7.0000E-02     5.0883E+00
     8.0000E-02     5.3625E+00
     9.0000E-02     5.5941E+00
     1.0000E-01     5.7977E+00
     1.2500E-01     6.2358E+00
     1.5000E-01     6.6156E+00
     1.7500E-01     6.9616E+00
     2.0000E-01     7.2844E+00
     2.5000E-01     7.8812E+00
     3.0000E-01     8.4305E+00
     3.5000E-01     8.9447E+00
     4.0000E-01     9.4311E+00
     4.5000E-01     9.8949E+00
     5.0000E-01     1.0340E+01
     5.5000E-01     1.0769E+01
     6.0000E-01     1.1185E+01
     7.0000E-01     1.1982E+01
     8.0000E-01     1.2742E+01
     9.0000E-01     1.3473E+01
     1.0000E+00     1.4180E+01
     1.2500E+00     1.5861E+01
     1.5000E+00     1.7432E+01
     1.7500E+00     1.8912E+01
     2.0000E+00     2.0312E+01
     2.5000E+00     2.2916E+01
     3.0000E+00     2.5297E+01
     3.5000E+00     2.7487E+01
     4.0000E+00     2.9512E+01
     4.5000E+00     3.1389E+01
     5.0000E+00     3.3132E+01
     5.5000E+00     3.4750E+01
     6.0000E+00     3.6257E+01
     7.0000E+00     3.8977E+01
     8.0000E+00     4.1354E+01
     9.0000E+00     4.3431E+01
     1.0000E+01     4.5267E+01
     1.2500E+01     4.8988E+01
     1.5000E+01     5.1754E+01
     1.7500E+01     5.3826E+01
     2.0000E+01     5.5401E+01
     2.5000E+01     5.7505E+01
     3.0000E+01     5.8726E+01
     3.5000E+01     5.9447E+01
     4.0000E+01     5.9822E+01
     4.5000E+01     5.9995E+01
     5.0000E+01     5.9985E+01
&
